       203      0.00   1895.79 Sc       Sc^+         2
Cross section:
Lambda = 0.1-1895.79 A
   Verner, D. A., Yakovlev, D. G., Band, I. M., Trzhaskovskaya, M. B. (1993)
   Atomic Data Nuclear Data Tables 55, 233
   Verner, D. A., Yakovlev, D. G. (1995)
   Astron. Astrophys. Suppl. 109, 125
   Verner, D. A., Ferland, G. J., Korista, K. T., Yakovlev, D. G. (1996)
   Astrophys. J. 465, 487
Threshold:  7.342 eV
   Cowan, R. D. (1981)
   The Theory of Atomic Structure and Spectra (University of California Press, 
   Berkeley, Los Angeles, London), p. 12-15.
        
      0.10  3.68E-24
      2.76  6.10E-20
      2.77  7.11E-21
     10.00  2.28E-19
     20.00  1.22E-18
     24.64  1.90E-18
     24.65  1.67E-18
     30.00  2.45E-18
     30.58  2.53E-18
     30.59  2.90E-19
     40.00  4.82E-19
     50.00  7.09E-19
     60.00  9.45E-19
     70.00  1.18E-18
     80.00  1.40E-18
     90.00  1.60E-18
    100.00  1.77E-18
    110.00  1.92E-18
    120.00  2.05E-18
    130.00  2.14E-18
    140.00  2.22E-18
    150.00  2.27E-18
    160.00  2.30E-18
    170.00  2.32E-18
    180.00  2.34E-18
    190.00  2.36E-18
    200.00  2.38E-18
    210.00  2.42E-18
    219.83  2.48E-18
    219.84  2.10E-18
    220.00  2.10E-18
    230.00  2.22E-18
    240.00  2.38E-18
    250.00  2.60E-18
    260.00  2.88E-18
    270.00  3.23E-18
    280.00  3.67E-18
    290.00  4.20E-18
    300.00  4.84E-18
    310.00  5.60E-18
    320.00  6.48E-18
    330.00  7.51E-18
    340.00  8.69E-18
    350.00  1.00E-17
    360.00  1.16E-17
    369.00  1.31E-17
    369.01  2.52E-18
    370.00  2.53E-18
    380.00  2.60E-18
    390.00  2.67E-18
    400.00  2.74E-18
    410.00  2.80E-18
    420.00  2.86E-18
    430.00  2.92E-18
    440.00  2.98E-18
    450.00  3.03E-18
    460.00  3.08E-18
    470.00  3.12E-18
    480.00  3.17E-18
    490.00  3.21E-18
    500.00  3.24E-18
    510.00  3.28E-18
    520.00  3.31E-18
    530.00  3.34E-18
    540.00  3.36E-18
    550.00  3.38E-18
    560.00  3.40E-18
    570.00  3.42E-18
    580.00  3.43E-18
    590.00  3.44E-18
    600.00  3.45E-18
    610.00  3.45E-18
    620.00  3.46E-18
    630.00  3.46E-18
    640.00  3.45E-18
    650.00  3.45E-18
    660.00  3.44E-18
    670.00  3.43E-18
    680.00  3.42E-18
    690.00  3.41E-18
    700.00  3.39E-18
    710.00  3.38E-18
    720.00  3.36E-18
    730.00  3.34E-18
    740.00  3.32E-18
    750.00  3.29E-18
    760.00  3.27E-18
    770.00  3.24E-18
    780.00  3.22E-18
    790.00  3.19E-18
    800.00  3.16E-18
    810.00  3.13E-18
    820.00  3.10E-18
    830.00  3.07E-18
    840.00  3.04E-18
    850.00  3.01E-18
    860.00  2.98E-18
    870.00  2.95E-18
    880.00  2.92E-18
    890.00  2.89E-18
    900.00  2.85E-18
    910.00  2.82E-18
    920.00  2.79E-18
    930.00  2.77E-18
    940.00  2.74E-18
    950.00  2.71E-18
    960.00  2.68E-18
    970.00  2.66E-18
    980.00  2.64E-18
    990.00  2.61E-18
   1000.00  2.59E-18
   1010.00  2.57E-18
   1020.00  2.56E-18
   1030.00  2.54E-18
   1040.00  2.53E-18
   1050.00  2.52E-18
   1060.00  2.51E-18
   1070.00  2.51E-18
   1080.00  2.50E-18
   1090.00  2.50E-18
   1100.00  2.51E-18
   1110.00  2.51E-18
   1120.00  2.52E-18
   1130.00  2.53E-18
   1140.00  2.55E-18
   1150.00  2.57E-18
   1160.00  2.59E-18
   1170.00  2.62E-18
   1180.00  2.65E-18
   1190.00  2.69E-18
   1200.00  2.73E-18
   1210.00  2.77E-18
   1220.00  2.82E-18
   1230.00  2.88E-18
   1240.00  2.93E-18
   1250.00  3.00E-18
   1260.00  3.07E-18
   1270.00  3.14E-18
   1280.00  3.22E-18
   1290.00  3.31E-18
   1300.00  3.40E-18
   1310.00  3.49E-18
   1320.00  3.60E-18
   1330.00  3.71E-18
   1340.00  3.82E-18
   1350.00  3.94E-18
   1360.00  4.07E-18
   1370.00  4.21E-18
   1380.00  4.35E-18
   1390.00  4.50E-18
   1400.00  4.65E-18
   1410.00  4.82E-18
   1420.00  4.99E-18
   1430.00  5.17E-18
   1440.00  5.35E-18
   1450.00  5.55E-18
   1460.00  5.75E-18
   1470.00  5.96E-18
   1480.00  6.18E-18
   1490.00  6.40E-18
   1500.00  6.64E-18
   1510.00  6.88E-18
   1520.00  7.13E-18
   1530.00  7.39E-18
   1540.00  7.66E-18
   1547.88  7.88E-18
   1547.89  2.92E-21
   1550.00  3.14E-21
   1560.00  4.30E-21
   1570.00  5.65E-21
   1580.00  7.21E-21
   1590.00  8.96E-21
   1600.00  1.09E-20
   1610.00  1.31E-20
   1620.00  1.55E-20
   1630.00  1.81E-20
   1640.00  2.09E-20
   1650.00  2.40E-20
   1660.00  2.73E-20
   1670.00  3.08E-20
   1680.00  3.46E-20
   1690.00  3.86E-20
   1700.00  4.29E-20
   1710.00  4.74E-20
   1720.00  5.22E-20
   1730.00  5.73E-20
   1740.00  6.26E-20
   1750.00  6.82E-20
   1760.00  7.41E-20
   1770.00  8.03E-20
   1780.00  8.68E-20
   1790.00  9.35E-20
   1800.00  1.01E-19
   1810.00  1.08E-19
   1820.00  1.16E-19
   1830.00  1.24E-19
   1840.00  1.32E-19
   1850.00  1.40E-19
   1860.00  1.49E-19
   1870.00  1.59E-19
   1880.00  1.68E-19
   1890.00  1.78E-19
   1895.79  1.84E-19
  0
***
